WL(nm)	PL	PE(mW/nm)
380	0.0062	0.9602
381	0.0053	0.8222
382	0.0051	0.7813
383	0.0049	0.7597
384	0.0043	0.6571
385	0.0039	0.5985
386	0.0036	0.5486
387	0.0032	0.4921
388	0.0029	0.4514
389	0.0029	0.4476
390	0.0025	0.3920
391	0.0028	0.4268
392	0.0025	0.3923
393	0.0024	0.3768
394	0.0026	0.4065
395	0.0027	0.4156
396	0.0028	0.4337
397	0.0029	0.4471
398	0.0033	0.5036
399	0.0036	0.5509
400	0.0042	0.6503
401	0.0048	0.7395
402	0.0056	0.8633
403	0.0067	1.0322
404	0.0077	1.1842
405	0.0093	1.4233
406	0.0111	1.7056
407	0.0130	1.9988
408	0.0158	2.4296
409	0.0180	2.7736
410	0.0214	3.2920
411	0.0248	3.8211
412	0.0297	4.5622
413	0.0336	5.1633
414	0.0394	6.0643
415	0.0442	6.7984
416	0.0507	7.8011
417	0.0568	8.7407
418	0.0646	9.9350
419	0.0729	11.2093
420	0.0820	12.6170
421	0.0905	13.9251
422	0.1013	15.5888
423	0.1101	16.9358
424	0.1200	18.4582
425	0.1299	19.9920
426	0.1409	21.6854
427	0.1533	23.5805
428	0.1640	25.2258
429	0.1752	26.9518
430	0.1891	29.0997
431	0.2009	30.9151
432	0.2127	32.7329
433	0.2248	34.5932
434	0.2342	36.0359
435	0.2453	37.7500
436	0.2549	39.2227
437	0.2666	41.0194
438	0.2734	42.0619
439	0.2851	43.8720
440	0.2950	45.3838
441	0.3004	46.2195
442	0.3094	47.6046
443	0.3158	48.5912
444	0.3196	49.1763
445	0.3264	50.2193
446	0.3269	50.3027
447	0.3305	50.8462
448	0.3228	49.6655
449	0.3123	48.0541
450	0.3048	46.8945
451	0.2893	44.5099
452	0.2725	41.9221
453	0.2532	38.9555
454	0.2349	36.1495
455	0.2185	33.6192
456	0.1996	30.7074
457	0.1837	28.2665
458	0.1697	26.1047
459	0.1558	23.9684
460	0.1445	22.2283
461	0.1336	20.5520
462	0.1256	19.3260
463	0.1192	18.3453
464	0.1144	17.6000
465	0.1083	16.6710
466	0.1031	15.8584
467	0.0990	15.2349
468	0.0949	14.5990
469	0.0901	13.8646
470	0.0864	13.2968
471	0.0840	12.9215
472	0.0807	12.4097
473	0.0772	11.8719
474	0.0769	11.8337
475	0.0759	11.6766
476	0.0751	11.5567
477	0.0762	11.7276
478	0.0757	11.6537
479	0.0769	11.8321
480	0.0799	12.2960
481	0.0825	12.6883
482	0.0845	13.0085
483	0.0890	13.6997
484	0.0948	14.5864
485	0.0992	15.2605
486	0.1046	16.0874
487	0.1112	17.1028
488	0.1183	18.1972
489	0.1280	19.6998
490	0.1375	21.1586
491	0.1495	23.0038
492	0.1619	24.9101
493	0.1758	27.0446
494	0.1879	28.9144
495	0.2055	31.6245
496	0.2218	34.1300
497	0.2384	36.6822
498	0.2577	39.6511
499	0.2764	42.5344
500	0.2988	45.9794
501	0.3227	49.6480
502	0.3450	53.0792
503	0.3706	57.0166
504	0.3942	60.6582
505	0.4196	64.5544
506	0.4422	68.0398
507	0.4684	72.0737
508	0.4911	75.5612
509	0.5205	80.0794
510	0.5489	84.4556
511	0.5712	87.8930
512	0.5927	91.1893
513	0.6218	95.6701
514	0.6438	99.0542
515	0.6701	103.1031
516	0.6892	106.0464
517	0.7093	109.1364
518	0.7326	112.7134
519	0.7538	115.9794
520	0.7728	118.9033
521	0.7961	122.4839
522	0.8050	123.8627
523	0.8303	127.7599
524	0.8375	128.8573
525	0.8527	131.2058
526	0.8678	133.5207
527	0.8835	135.9359
528	0.8910	137.0904
529	0.9037	139.0524
530	0.9171	141.1087
531	0.9218	141.8381
532	0.9331	143.5654
533	0.9428	145.0622
534	0.9483	145.9064
535	0.9573	147.2971
536	0.9679	148.9215
537	0.9680	148.9430
538	0.9722	149.5857
539	0.9850	151.5588
540	0.9861	151.7300
541	0.9839	151.3786
542	0.9818	151.0694
543	0.9941	152.9576
544	0.9904	152.3839
545	0.9873	151.9141
546	0.9969	153.3827
547	0.9858	151.6727
548	1.0000	153.8628
549	0.9973	153.4453
550	0.9936	152.8763
551	0.9934	152.8535
552	0.9947	153.0482
553	0.9870	151.8694
554	0.9826	151.1869
555	0.9861	151.7215
556	0.9824	151.1570
557	0.9706	149.3431
558	0.9845	151.4771
559	0.9815	151.0189
560	0.9752	150.0440
561	0.9704	149.3025
562	0.9660	148.6283
563	0.9611	147.8707
564	0.9586	147.4911
565	0.9539	146.7625
566	0.9475	145.7881
567	0.9406	144.7224
568	0.9496	146.1099
569	0.9412	144.8148
570	0.9216	141.8045
571	0.9199	141.5327
572	0.9165	141.0190
573	0.9144	140.6899
574	0.9105	140.0967
575	0.8959	137.8528
576	0.8880	136.6372
577	0.8808	135.5223
578	0.8815	135.6239
579	0.8729	134.3074
580	0.8668	133.3644
581	0.8582	132.0439
582	0.8517	131.0526
583	0.8462	130.2000
584	0.8385	129.0134
585	0.8256	127.0288
586	0.8197	126.1141
587	0.8166	125.6516
588	0.8025	123.4743
589	0.7950	122.3277
590	0.7888	121.3738
591	0.7788	119.8334
592	0.7706	118.5612
593	0.7665	117.9372
594	0.7582	116.6588
595	0.7467	114.8968
596	0.7367	113.3582
597	0.7333	112.8300
598	0.7242	111.4224
599	0.7109	109.3866
600	0.7020	108.0160
601	0.6888	105.9773
602	0.6785	104.4012
603	0.6724	103.4550
604	0.6653	102.3669
605	0.6605	101.6312
606	0.6459	99.3800
607	0.6405	98.5560
608	0.6299	96.9132
609	0.6200	95.3962
610	0.6153	94.6663
611	0.6044	93.0004
612	0.5955	91.6220
613	0.5835	89.7769
614	0.5760	88.6178
615	0.5633	86.6671
616	0.5566	85.6367
617	0.5493	84.5098
618	0.5401	83.0977
619	0.5299	81.5308
620	0.5219	80.3019
621	0.5127	78.8823
622	0.5056	77.7894
623	0.4968	76.4408
624	0.4898	75.3565
625	0.4835	74.3935
626	0.4718	72.5990
627	0.4614	70.9885
628	0.4594	70.6882
629	0.4521	69.5668
630	0.4421	68.0240
631	0.4320	66.4686
632	0.4248	65.3635
633	0.4172	64.1903
634	0.4106	63.1821
635	0.4032	62.0403
636	0.3971	61.1002
637	0.3862	59.4277
638	0.3809	58.6004
639	0.3733	57.4424
640	0.3676	56.5536
641	0.3574	54.9830
642	0.3541	54.4853
643	0.3426	52.7072
644	0.3361	51.7145
645	0.3311	50.9393
646	0.3270	50.3143
647	0.3189	49.0703
648	0.3136	48.2454
649	0.3049	46.9071
650	0.2998	46.1238
651	0.2949	45.3806
652	0.2881	44.3320
653	0.2806	43.1732
654	0.2761	42.4879
655	0.2721	41.8612
656	0.2663	40.9735
657	0.2587	39.8048
658	0.2572	39.5698
659	0.2485	38.2300
660	0.2404	36.9844
661	0.2327	35.8062
662	0.2287	35.1844
663	0.2238	34.4349
664	0.2195	33.7772
665	0.2162	33.2682
666	0.2114	32.5252
667	0.2068	31.8223
668	0.2012	30.9600
669	0.1950	30.0089
670	0.1912	29.4143
671	0.1885	29.0063
672	0.1822	28.0405
673	0.1796	27.6312
674	0.1760	27.0723
675	0.1714	26.3676
676	0.1674	25.7557
677	0.1631	25.0996
678	0.1615	24.8459
679	0.1579	24.3013
680	0.1555	23.9191
681	0.1505	23.1553
682	0.1473	22.6591
683	0.1444	22.2206
684	0.1407	21.6471
685	0.1380	21.2282
686	0.1349	20.7508
687	0.1317	20.2692
688	0.1299	19.9877
689	0.1263	19.4390
690	0.1238	19.0441
691	0.1199	18.4427
692	0.1174	18.0672
693	0.1157	17.8038
694	0.1128	17.3588
695	0.1101	16.9378
696	0.1072	16.4960
697	0.1044	16.0565
698	0.1031	15.8705
699	0.1001	15.4064
700	0.0982	15.1084
701	0.0954	14.6775
702	0.0938	14.4321
703	0.0908	13.9782
704	0.0891	13.7048
705	0.0869	13.3744
706	0.0860	13.2390
707	0.0834	12.8332
708	0.0819	12.5994
709	0.0806	12.4072
710	0.0774	11.9063
711	0.0753	11.5821
712	0.0745	11.4587
713	0.0727	11.1785
714	0.0705	10.8445
715	0.0683	10.5139
716	0.0674	10.3659
717	0.0659	10.1466
718	0.0630	9.6991
719	0.0624	9.6042
720	0.0610	9.3887
721	0.0590	9.0781
722	0.0583	8.9690
723	0.0561	8.6315
724	0.0553	8.5129
725	0.0542	8.3429
726	0.0511	7.8564
727	0.0514	7.9098
728	0.0498	7.6619
729	0.0489	7.5254
730	0.0476	7.3193
731	0.0463	7.1258
732	0.0451	6.9455
733	0.0440	6.7771
734	0.0435	6.6930
735	0.0414	6.3668
736	0.0412	6.3386
737	0.0401	6.1774
738	0.0384	5.9036
739	0.0386	5.9464
740	0.0377	5.8019
741	0.0366	5.6380
742	0.0364	5.5976
743	0.0349	5.3700
744	0.0342	5.2674
745	0.0329	5.0588
746	0.0319	4.9099
747	0.0319	4.9142
748	0.0316	4.8678
749	0.0304	4.6790
750	0.0295	4.5346
751	0.0303	4.6578
752	0.0279	4.2914
753	0.0283	4.3577
754	0.0263	4.0515
755	0.0259	3.9890
756	0.0246	3.7851
757	0.0244	3.7485
758	0.0245	3.7703
759	0.0252	3.8724
760	0.0226	3.4755
761	0.0236	3.6300
762	0.0223	3.4365
763	0.0224	3.4465
764	0.0213	3.2827
765	0.0200	3.0787
766	0.0199	3.0674
767	0.0200	3.0843
768	0.0193	2.9629
769	0.0186	2.8613
770	0.0183	2.8152
771	0.0176	2.7133
772	0.0173	2.6600
773	0.0171	2.6362
774	0.0168	2.5913
775	0.0167	2.5753
776	0.0160	2.4660
777	0.0156	2.3997
778	0.0147	2.2600
779	0.0142	2.1783
780	0.0146	2.2477
781	0.0134	2.0606
782	0.0135	2.0743
783	0.0134	2.0593
784	0.0134	2.0658
785	0.0129	1.9871
786	0.0128	1.9671
787	0.0121	1.8663
788	0.0120	1.8508
789	0.0120	1.8478
790	0.0122	1.8846
791	0.0110	1.6861
792	0.0112	1.7212
793	0.0113	1.7416
794	0.0113	1.7456
795	0.0104	1.6036
796	0.0102	1.5766
797	0.0097	1.4956
798	0.0091	1.4069
799	0.0095	1.4615
800	0.0094	1.4508
